Acq. time (s)=	10
Accumulations=	15
Range (cm-¹)=	150...3700
Windows=	17
Autofocus=	Off
AutoExposure=	Off
Spike filter=	Multiple accum.
Delay time (s)=	0
Binning=	1
Readout mode=	Signal
DeNoise=	Standard
ICS correction=	On
Dark correction=	Off
Inst. Process=	On
Instrument=	LabRAM S3000
Detector=	Synapse
Objective=	x100
Grating=	1800
ND Filter=	100%
Laser (nm)=	632.81 
Slit=	100.021
Hole=	1000.03
Microscope=	Principal
StageXY=	Märzhauser
StageZ=	Märzhauser
X (µm)=	-1134.8
Y (µm)=	21742.6
Z (µm)=	-5.1
Project=	
Sample=	
Site=	
Title=	SPIS_spectra
Remark=	
Date=	17.06.2019 10:35
Operator=	
Acquired=	17.06.2019 10:35:14
Base:Sub=	17.06.2019 10:51:43
150.124	0.663804
150.46	0.690424
150.798	0.628067
151.134	0.621326
151.471	0.75079
151.807	0.828331
152.145	0.887144
152.481	1.0306
152.818	1.20959
153.154	1.42564
153.49	1.57704
153.827	1.63804
154.164	1.69024
154.501	1.6858
154.837	1.6612
155.173	1.62018
155.509	1.52686
155.846	1.45458
156.183	1.32139
156.52	1.20949
156.856	1.11219
157.192	1.045
157.528	0.977587
157.864	0.893979
158.2	0.811333
158.536	0.720623
158.872	0.690027
159.208	0.689332
159.545	0.725819
159.882	0.780672
160.218	0.904666
160.554	1.07471
160.89	1.2086
161.226	1.25544
161.562	1.2601
161.898	1.27262
162.234	1.2293
162.57	1.13415
162.906	1.01805
163.242	0.862393
163.578	0.725846
163.913	0.589204
164.249	0.463123
164.585	0.362781
164.921	0.27883
165.257	0.141182
165.593	0.0428008
165.928	-0.00131443
166.264	-0.00177494
166.6	0.0357969
166.936	0.0913136
167.27	0.158896
167.606	0.226052
167.941	0.298039
168.277	0.397861
168.613	0.462506
168.948	0.468654
169.284	0.480452
169.62	0.518377
169.955	0.483692
170.291	0.654244
170.625	0.761069
170.96	0.665431
171.296	0.336074
171.631	0.14919
171.967	0.226093
172.302	0.415402
172.638	0.591995
172.972	0.667384
173.307	0.643973
173.643	0.496093
173.978	0.330189
174.314	0.16323
174.648	-0.0481381
174.983	-0.174564
175.318	-0.215961
175.654	-0.147434
175.989	0.0830895
176.323	0.0592443
176.658	0.144827
176.994	0.207379
177.329	0.320533
177.663	0.484509
177.998	0.608527
178.333	0.684529
178.667	0.737555
179.002	0.771905
179.337	0.803248
179.673	0.817377
180.006	0.795322
180.341	0.744633
180.677	0.578228
181.01	0.416052
181.345	0.309451
181.68	0.259356
182.014	0.269501
182.349	0.349883
182.684	0.462855
183.018	0.558534
183.353	0.669539
183.688	0.812814
184.021	0.926429
184.356	1.02103
184.69	1.09103
185.025	1.18497
185.36	1.2991
185.693	1.44952
186.028	1.4639
186.361	1.47391
186.696	1.50871
187.031	1.55815
187.365	1.65928
187.699	1.77724
188.033	1.8876
188.368	2.0246
188.701	2.16044
189.036	2.22212
189.369	2.34093
189.704	2.45122
190.037	2.59826
190.372	2.67855
190.705	2.71947
191.04	2.72047
191.373	2.74971
191.708	2.72001
192.041	2.66548
192.375	2.5736
192.709	2.4745
193.043	2.37398
193.376	2.28349
193.711	2.24903
194.044	2.21361
194.379	2.23492
194.712	2.34856
195.045	2.4567
195.379	2.5668
195.712	2.66454
196.047	2.77109
196.38	2.8441
196.714	2.89719
197.047	2.90297
197.38	2.81734
197.714	2.71018
198.047	2.57978
198.38	2.43579
198.715	2.3305
199.047	2.22968
199.38	2.13707
199.715	2.07772
200.048	2.04685
200.38	2.02845
200.715	2.0406
201.047	2.09256
201.38	2.14075
201.714	2.23678
202.047	2.2793
202.38	2.20545
202.714	2.1114
203.047	2.00561
203.38	1.8938
203.712	1.78531
204.046	1.73654
204.379	1.73018
204.712	1.71326
205.044	1.66373
205.378	1.61188
205.711	1.60736
206.043	1.65443
206.376	1.70281
206.709	1.71488
207.043	1.76794
207.375	1.84863
207.708	1.88942
208.04	1.88546
208.373	1.87116
208.707	1.83873
209.039	1.81582
209.371	1.8188
209.704	1.83493
210.036	1.83252
210.369	1.81881
210.702	1.79293
211.035	1.7757
211.367	1.79329
211.7	1.83968
212.032	1.98347
212.364	2.06742
212.696	2.2046
213.029	2.26924
213.361	2.30963
213.693	2.34646
214.027	2.37449
214.359	2.38378
214.691	2.33281
215.024	2.26278
215.356	2.19888
215.688	2.16531
216.02	2.18231
216.352	2.22004
216.684	2.28925
217.016	2.32564
217.349	2.32032
217.681	2.30824
218.013	2.32336
218.345	2.34485
218.677	2.3155
219.009	2.27381
219.341	2.22185
219.673	2.23063
220.005	2.19923
220.337	2.16802
220.669	2.09651
221.001	2.05176
221.333	2.089
221.665	2.149
221.995	2.19438
222.327	2.21423
222.659	2.23711
222.991	2.23442
223.322	2.22786
223.654	2.16903
223.986	2.00078
224.318	1.88927
224.65	1.87853
224.981	1.7411
225.312	1.58529
225.643	1.50196
225.975	1.44984
226.307	1.42722
226.638	1.45151
226.97	1.54148
227.3	1.50974
227.632	1.46365
227.964	1.44464
228.295	1.42718
228.627	1.37615
228.957	1.3937
229.289	1.39076
229.62	1.35803
229.952	1.32216
230.283	1.29797
230.613	1.28683
230.945	1.28119
231.276	1.19009
231.608	1.0653
231.938	0.989619
232.269	0.906826
232.601	0.836055
232.932	0.818048
233.262	0.825695
233.593	0.799703
233.925	0.737808
234.255	0.645205
234.586	0.558304
234.917	0.485423
235.247	0.448607
235.579	0.423751
235.91	0.413763
236.24	0.365374
236.571	0.337961
236.902	0.308706
237.232	0.29066
237.563	0.301492
237.895	0.309793
238.224	0.340945
238.555	0.374978
238.885	0.407794
239.216	0.425109
239.547	0.452979
239.877	0.40577
240.208	0.342856
240.538	0.30106
240.869	0.266195
241.2	0.244104
241.53	0.200402
241.861	0.167922
242.19	0.118224
242.521	0.101826
242.851	0.0760266
243.182	0.0517868
243.511	0.0160503
243.842	-0.000313009
244.172	-0.012419
244.503	-0.0038143
244.832	0.0293405
245.163	0.0671456
245.492	0.10512
245.823	0.14151
246.153	0.203596
246.484	0.180368
246.813	0.15363
247.144	0.0931357
247.473	0.0191359
247.804	-0.0703449
248.133	-0.0871816
248.462	-0.0938661
248.793	-0.0916915
249.122	-0.0811616
249.453	-0.0483651
249.782	0.00212023
250.113	0.0488131
250.442	0.0956114
250.772	0.145603
251.102	0.202618
251.431	0.268956
251.761	0.351271
252.091	0.481361
252.42	0.519424
252.749	0.518656
253.08	0.531638
253.409	0.527774
253.738	0.519561
254.069	0.528072
254.398	0.519893
254.727	0.53268
255.057	0.566043
255.386	0.585862
255.715	0.621443
256.046	0.684139
256.375	0.756212
256.704	0.778421
257.032	0.802763
257.363	0.843752
257.692	0.863829
258.021	0.889686
258.35	0.871152
258.68	0.869477
259.009	0.876566
259.338	0.886011
259.666	0.902047
259.997	0.907301
260.325	0.930297
260.654	0.955299
260.983	1.00794
261.312	1.08521
261.642	1.18027
261.971	1.25449
262.299	1.29165
262.628	1.33597
262.957	1.34963
263.285	1.32217
263.614	1.28131
263.944	1.2382
264.273	1.21784
264.601	1.21434
264.93	1.24229
265.259	1.31274
265.587	1.43387
265.916	1.53193
266.244	1.63489
266.573	1.73634
266.903	1.86102
267.231	2.02047
267.56	2.13332
267.888	2.14136
268.217	2.1267
268.545	1.92368
268.874	1.84367
269.202	1.86389
269.53	1.88096
269.859	1.90217
270.187	1.90471
270.515	1.90796
270.844	1.92107
271.172	1.94085
271.5	1.95508
271.829	1.98394
272.157	2.00129
272.485	2.05315
272.814	2.10544
273.142	2.15813
273.47	2.22276
273.798	2.30292
274.126	2.40465
274.455	2.51304
274.783	2.60378
275.11	2.68532
275.438	2.75468
275.766	2.80895
276.094	2.86942
276.422	2.93465
276.75	2.98548
277.078	3.02209
277.406	3.02879
277.734	3.03274
278.061	3.00553
278.389	2.92637
278.717	2.91493
279.045	2.97447
279.373	3.01464
279.701	3.07243
280.027	3.13857
280.355	3.19345
280.683	3.26016
281.011	3.35294
281.339	3.44619
281.667	3.53424
281.993	3.61348
282.321	3.67439
282.649	3.69361
282.977	3.68901
283.303	3.66073
283.631	3.60543
283.959	3.54285
284.287	3.5194
284.613	3.57378
284.941	3.70406
285.268	3.83634
285.596	3.82296
285.922	3.83943
286.25	3.79482
286.578	3.75776
286.904	3.75234
287.232	3.75118
287.559	3.7263
287.885	3.69534
288.213	3.69036
288.541	3.72151
288.867	3.77018
289.194	3.81522
289.522	3.83692
289.848	3.82968
290.176	3.84438
290.503	3.86639
290.829	3.93012
291.157	4.00837
291.483	4.09893
291.81	4.20144
292.137	4.3567
292.463	4.48123
292.791	4.5901
293.117	4.65854
293.444	4.68874
293.772	4.71737
294.097	4.75847
294.425	4.80356
294.751	4.89077
295.078	4.94986
295.404	4.95698
295.731	4.92241
296.057	4.87814
296.384	4.86309
296.71	4.84057
297.037	4.87758
297.363	4.9298
297.69	4.99883
298.016	5.06797
298.343	5.15454
298.669	5.26753
298.996	5.36934
299.322	5.44891
299.649	5.53696
299.974	5.63337
300.3	5.73224
300.627	5.79596
300.953	5.83079
301.28	5.86773
301.605	5.92888
301.931	5.97623
302.258	6.05402
302.583	6.13873
302.91	6.22907
303.236	6.39507
303.561	6.55255
303.888	6.7324
304.214	6.88034
304.539	6.9433
304.866	6.95771
305.192	6.92569
305.517	6.89905
305.844	6.893
306.169	6.91667
306.495	6.94836
306.822	7.02573
307.147	7.12472
307.472	7.18509
307.799	7.2055
308.124	7.25234
308.45	7.33219
308.775	7.42515
309.102	7.49832
309.427	7.56392
309.752	7.62211
310.077	7.66549
310.404	7.69702
310.729	7.70795
311.054	7.71173
311.38	7.7365
311.706	7.75064
312.031	7.75161
312.356	7.75683
312.682	7.71558
313.007	7.67841
313.333	7.63752
313.658	7.60908
313.983	7.57915
314.308	7.5657
314.633	7.57644
314.958	7.59682
315.284	7.64912
315.61	7.64644
315.935	7.67658
316.26	7.71114
316.585	7.76066
316.91	7.80916
317.235	7.84315
317.56	7.87319
317.885	7.84804
318.209	7.86743
318.536	7.91902
318.861	7.97513
319.185	8.02326
319.51	8.07263
319.835	8.11207
320.16	8.15177
320.485	8.17578
320.809	8.22649
321.134	8.25309
321.459	8.20048
321.784	8.20179
322.108	8.13235
322.433	8.07582
322.758	8.05886
323.082	7.99961
323.407	7.94293
323.732	7.91418
324.056	7.89553
324.381	7.86278
324.706	7.84176
325.03	7.83328
325.355	7.82665
325.679	7.81923
326.004	7.78149
326.327	7.76307
326.652	7.77881
326.976	7.77341
327.301	7.78802
327.625	7.81269
327.95	7.85528
328.274	7.87597
328.598	7.89702
328.923	7.91869
329.246	7.94159
329.57	7.95737
329.895	7.97
330.219	8.01282
330.543	8.08657
330.868	8.1012
331.192	8.12094
331.515	8.06942
331.839	8.04837
332.164	8.08344
332.488	8.11539
332.812	8.13385
333.135	8.12924
333.459	8.07193
333.783	8.00833
334.108	8.0244
334.43	8.057
334.755	8.05679
335.079	8.05841
335.403	8.02557
335.726	8.05107
336.05	8.0877
336.374	8.11331
336.698	8.13417
337.021	8.17023
337.345	8.20246
337.669	8.24894
337.991	8.30677
338.315	8.37039
338.639	8.42203
338.962	8.44031
339.286	8.46582
339.61	8.50877
339.932	8.55043
340.256	8.5882
340.58	8.64795
340.903	8.57115
341.227	8.56161
341.551	8.53371
341.873	8.53567
342.197	8.53712
342.519	8.56031
342.843	8.58895
343.167	8.63558
343.489	8.69718
343.813	8.74324
344.135	8.77395
344.459	8.76628
344.782	8.76993
345.105	8.85306
345.429	8.82956
345.751	8.81622
346.075	8.87847
346.397	8.89771
346.721	8.97069
347.043	8.89984
347.367	8.92011
347.689	8.84212
348.013	8.8016
348.335	8.87137
348.658	8.99766
348.981	9.01709
349.304	9.03019
349.626	9.07203
349.948	9.11467
350.272	9.13137
350.594	9.13424
350.918	9.1368
351.24	9.16034
351.563	9.18503
351.885	9.23498
352.207	9.28975
352.53	9.33782
352.852	9.39432
353.176	9.39944
353.498	9.37826
353.82	9.36001
354.143	9.36313
354.465	9.37754
354.788	9.38611
355.11	9.38443
355.432	9.38809
355.755	9.45956
356.077	9.488
356.399	9.53936
356.722	9.54866
357.044	9.60826
357.366	9.55102
357.688	9.54732
358.011	9.52819
358.333	9.5525
358.654	9.50674
358.978	9.49974
359.299	9.43536
359.621	9.39503
359.943	9.33709
360.266	9.17993
360.587	9.19273
360.909	8.97624
361.231	9.07578
361.552	9.33246
361.875	9.35506
362.197	9.15073
362.519	9.27465
362.84	9.50365
363.162	9.52096
363.485	9.54857
363.806	9.52656
364.128	9.50718
364.449	9.50828
364.771	9.48642
365.092	9.49541
365.415	9.47567
365.736	9.41376
366.058	9.35298
366.379	9.30099
366.701	9.24815
367.022	9.22069
367.343	9.20763
367.665	9.21804
367.988	9.21083
368.309	9.17181
368.63	9.18131
368.951	9.2095
369.273	9.27042
369.594	9.36393
369.915	9.44401
370.237	9.54561
370.558	9.48487
370.879	9.4518
371.2	9.39007
371.521	9.32353
371.843	9.26748
372.164	9.2151
372.485	9.18216
372.806	9.14677
373.127	9.10895
373.448	9.09125
373.769	9.08011
374.091	9.05562
374.412	9.01507
374.733	8.98366
375.054	8.95631
375.375	8.93693
375.696	8.93751
376.017	8.93768
376.338	8.94208
376.659	8.94465
376.978	8.94841
377.299	8.97981
377.62	9.0412
377.941	9.05966
378.262	9.08445
378.583	9.12004
378.904	9.16485
379.225	9.21115
379.544	9.26445
379.865	9.31256
380.186	9.36989
380.507	9.40787
380.827	9.44165
381.148	9.46768
381.468	9.45936
381.788	9.48271
382.109	9.51769
382.43	9.57312
382.751	9.60541
383.07	9.61789
383.39	9.62306
383.711	9.59789
384.032	9.54979
384.351	9.50737
384.672	9.47871
384.992	9.48813
385.313	9.49122
385.632	9.43842
385.953	9.42374
386.273	9.46851
386.594	9.54771
386.913	9.66203
387.234	9.73489
387.554	9.74455
387.873	9.87515
388.194	9.88427
388.514	9.84233
388.833	9.78478
389.154	9.70944
389.474	9.64987
389.793	9.57875
390.113	9.54432
390.434	9.59607
390.753	9.65576
391.073	9.69955
391.394	9.74643
391.712	9.78794
392.033	9.8338
392.352	9.92838
392.672	9.9653
392.991	10.0047
393.311	10.0539
393.631	10.1344
393.95	10.2103
394.27	10.2791
394.589	10.3357
394.909	10.3469
395.228	10.3818
395.548	10.4079
395.867	10.4405
396.187	10.4721
396.506	10.4957
396.826	10.5212
397.145	10.546
397.465	10.5902
397.784	10.6642
398.104	10.7088
398.422	10.741
398.742	10.7686
399.061	10.7782
399.381	10.8066
399.7	10.8466
400.02	10.8819
400.338	10.9412
400.657	10.9876
400.977	11.0422
401.295	11.0633
401.615	11.0719
401.934	11.069
402.252	11.0949
402.572	11.1284
402.89	11.154
403.21	11.212
403.529	11.3967
403.847	11.4732
404.167	11.5332
404.485	11.5926
404.804	11.6606
405.124	11.8231
405.442	12.0849
405.76	12.2217
406.08	12.3358
406.398	12.4699
406.717	12.5679
407.036	12.6557
407.355	12.7706
407.673	12.8787
407.991	12.9756
408.311	13.1093
408.629	13.2488
408.947	13.4096
409.265	13.6193
409.585	13.8597
409.903	14.0807
410.221	14.178
410.539	14.4814
410.859	14.6754
411.177	14.8897
411.495	15.1379
411.813	15.4573
412.131	15.6965
412.449	15.9091
412.769	16.1559
413.087	16.5265
413.405	16.9012
413.723	17.2369
414.041	17.5527
414.359	17.8834
414.678	18.195
414.996	18.5019
415.314	18.7733
415.632	19.0635
415.95	19.3782
416.268	19.7285
416.586	20.0605
416.903	20.3912
417.221	20.7187
417.539	21.0097
417.858	21.31
418.176	21.6463
418.494	22.0541
418.812	22.5186
419.13	22.9975
419.447	23.4941
419.765	24.0051
420.083	24.5645
420.401	25.131
420.718	25.7187
421.036	26.285
421.354	26.8843
421.671	27.4837
421.989	28.1091
422.307	28.8103
422.624	29.5387
422.942	30.2911
423.259	31.0128
423.577	31.7264
423.895	32.4023
424.211	33.1433
424.528	33.9206
424.846	34.6838
425.163	35.4416
425.481	36.1233
425.798	36.7424
426.116	37.2887
426.433	37.756
426.751	38.2101
427.068	38.6621
427.384	39.0706
427.702	39.4107
428.019	39.6977
428.336	39.864
428.654	39.9583
428.971	39.9926
429.288	39.9634
429.604	39.871
429.922	39.698
430.239	39.4797
430.556	39.1442
430.874	38.7536
431.189	38.3538
431.507	37.8749
431.824	37.3373
432.141	36.753
432.457	36.1283
432.774	35.4564
433.091	34.7982
433.409	34.1086
433.724	33.3337
434.041	32.5109
434.359	31.6897
434.676	30.8883
434.991	30.1454
435.309	29.4334
435.626	28.7857
435.941	28.151
436.258	27.5425
436.575	26.923
436.891	26.3785
437.208	25.7852
437.525	25.2367
437.841	24.6091
438.158	24.0802
438.474	23.5133
438.79	23.0236
439.107	22.6173
439.424	22.2887
439.739	21.8877
440.056	21.5322
440.372	21.1836
440.689	20.8638
441.005	20.5619
441.321	20.254
441.638	19.9997
441.953	19.7582
442.27	19.3927
442.585	19.1478
442.902	19.0744
443.217	18.9491
443.534	18.8579
443.851	18.7703
444.166	18.6976
444.483	18.6116
444.798	18.5413
445.115	18.4971
445.43	18.4616
445.747	18.4075
446.062	18.404
446.377	18.3873
446.694	18.3838
447.009	18.3741
447.326	18.3531
447.641	18.314
447.957	18.3086
448.273	18.3623
448.589	18.4357
448.904	18.5147
449.219	18.5525
449.536	18.5693
449.851	18.5746
450.167	18.5659
450.482	18.5197
450.798	18.4144
451.114	18.304
451.429	18.1577
451.744	18.0294
452.06	17.9329
452.375	17.8457
452.69	17.7037
453.007	17.5708
453.322	17.4258
453.637	17.2582
453.953	17.0787
454.268	16.8694
454.583	16.6233
454.899	16.3653
455.214	16.1063
455.529	15.9206
455.843	15.7466
456.16	15.6019
456.474	15.334
456.789	15.0403
457.104	14.7088
457.42	14.3864
457.735	14.0948
458.05	13.859
458.364	13.6287
458.68	13.4266
458.995	13.2205
459.31	13.0989
459.625	13.0079
459.939	12.9633
460.255	12.8386
460.57	12.7374
460.884	12.6547
461.199	12.5368
461.514	12.4001
461.828	12.2559
462.143	12.1475
462.459	12.0288
462.773	11.9008
463.088	11.7776
463.402	11.5919
463.717	11.6182
464.031	11.5807
464.346	11.5407
464.66	11.4907
464.975	11.5143
465.289	11.562
465.604	11.6206
465.919	11.662
466.234	11.6841
466.548	11.7098
466.863	11.7324
467.177	11.7772
467.491	11.8214
467.806	11.8852
468.12	11.9237
468.434	11.9831
468.749	12.0517
469.063	12.1402
469.377	12.2381
469.691	12.2998
470.006	12.3843
470.32	12.4816
470.634	12.5731
470.947	12.6529
471.261	12.7393
471.575	12.8364
471.889	12.964
472.203	13.0686
472.518	13.1836
472.832	13.3277
473.146	13.5129
473.46	13.7483
473.774	13.9731
474.088	14.2096
474.401	14.4468
474.715	14.6898
475.029	14.9558
475.343	15.238
475.657	15.5251
475.971	15.851
476.285	16.2061
476.597	16.587
476.911	16.9752
477.225	17.3536
477.539	17.7099
477.853	18.0665
478.165	18.444
478.479	18.8444
478.793	19.2799
479.107	19.7652
479.421	20.2952
479.733	20.8793
480.047	21.4803
480.361	22.0788
480.675	22.7002
480.987	23.2987
481.301	23.8794
481.615	24.4659
481.927	25.0736
482.241	25.7291
482.459	26.1974
482.777	26.8853
483.095	27.5333
483.413	28.1444
483.731	28.74
484.048	29.2432
484.366	29.6955
484.683	30.161
485.001	30.684
485.319	31.2964
485.637	31.9197
485.955	32.5558
486.272	33.0982
486.589	33.5964
486.907	34.0936
487.225	34.5136
487.542	34.8796
487.86	35.0678
488.178	35.2104
488.494	35.2793
488.812	35.4557
489.13	35.497
489.448	35.5131
489.764	35.4997
490.082	35.4685
490.399	35.3982
490.717	35.2324
491.033	35.0165
491.351	34.792
491.668	34.6353
491.986	34.4576
492.302	34.2647
492.62	34.0902
492.937	33.8616
493.254	33.6254
493.571	33.2766
493.889	32.8184
494.206	32.3712
494.522	31.8427
494.84	31.2507
495.157	30.6473
495.473	30.0333
495.791	29.3964
496.108	28.7443
496.424	28.1518
496.742	27.664
497.058	27.1942
497.375	26.7221
497.693	26.298
498.009	25.9003
498.326	25.4759
498.642	24.9909
498.959	24.4915
499.277	23.9511
499.592	23.417
499.91	22.9076
500.226	22.4992
500.543	22.1156
500.859	21.7489
501.176	21.3831
501.493	20.9436
501.809	20.437
502.126	19.9242
502.442	19.4347
502.759	19.0056
503.075	18.6423
503.392	18.2886
503.708	17.9338
504.025	17.608
504.341	17.2594
504.658	16.8614
504.973	16.5279
505.289	16.2181
505.606	15.9487
505.922	15.6863
506.239	15.3625
506.554	15.0809
506.871	14.8064
507.187	14.571
507.504	14.3201
507.819	14.0844
508.135	13.8381
508.452	13.6129
508.767	13.4277
509.084	13.2579
509.4	13.0859
509.715	12.9596
510.032	12.8938
510.348	12.9339
510.663	12.9806
510.98	12.9891
511.295	12.987
511.611	12.9607
511.927	12.9133
512.243	12.848
512.558	12.7451
512.875	12.6322
513.19	12.5448
513.506	12.4568
513.822	12.2934
514.138	12.0696
514.453	11.8158
514.768	11.5466
515.085	11.2521
515.4	10.9645
515.715	10.6759
516.032	10.4292
516.347	10.1723
516.662	9.92708
516.977	9.70697
517.293	9.52766
517.609	9.34661
517.924	9.14795
518.239	8.99
518.555	8.85789
518.87	8.77536
519.186	8.70048
519.501	8.57239
519.816	8.44576
520.131	8.2837
520.446	8.11078
520.763	7.9643
521.078	7.83108
521.393	7.72023
521.708	7.65546
522.023	7.58985
522.338	7.51915
522.653	7.43154
522.967	7.3771
523.284	7.40128
523.599	7.40452
523.914	7.36761
524.228	7.31135
524.543	7.22439
524.858	7.11908
525.173	7.00712
525.488	6.9032
525.803	6.80693
526.117	6.74466
526.432	6.71013
526.747	6.67289
527.062	6.67771
527.376	6.6453
527.691	6.66202
528.006	6.61186
528.321	6.58272
528.635	6.5529
528.95	6.52818
529.265	6.52213
529.579	6.49952
529.894	6.46884
530.209	6.4527
530.523	6.4028
530.838	6.30879
531.152	6.07561
531.467	5.84526
531.781	5.73586
532.096	5.66611
532.411	5.66068
532.725	5.68823
533.04	5.74636
533.354	5.764
533.667	5.73587
533.982	5.65047
534.296	5.60911
534.61	5.57853
534.925	5.55373
535.239	5.50121
535.554	5.45104
535.868	5.39625
536.181	5.34718
536.495	5.33306
536.81	5.28736
537.124	5.3194
537.438	5.25439
537.753	5.16911
538.066	5.04968
538.38	4.92138
538.694	4.84137
539.008	4.77538
539.323	4.71605
539.636	4.62323
539.95	4.57337
540.264	4.55794
540.578	4.53062
540.891	4.50992
541.205	4.50165
541.519	4.46477
541.833	4.43012
