#Acq. time (s)=	10
#Accumulations=	3
#Range=	Off
#Autofocus=	At all pixels
#SWIFT=	Off
#AutoExposure=	Off
#Spike filter=	Multiple accum.
#Delay time (s)=	0
#Binning=	1
#Readout mode=	Signal
#DeNoise=	Off
#ICS correction=	On
#Dark correction=	Off
#Inst. Process=	Off
#Detector temperature (°C)=	-69.95
#Instrument=	LabRAM S3000
#Detector=	Synapse
#Objective=	x100
#Grating=	1800
#ND Filter=	10%
#Laser (nm)=	632.81 
#Spectro (cm-¹)=	521.205
#Slit=	100.021
#Hole=	199.981
#Microscope=	Principal
#StageXY=	Märzhauser
#StageZ=	Märzhauser
#X (µm)=	-3557.1
#Y (µm)=	-0.2
#Z (µm)=	589.1
#Full time(mm:ss)=	2:06
#Project=	
#Sample=	
#Site=	
#Title=	SOP_sample1_timescan
#Remark=	
#Date=	09.07.2019 13:51
#Operator=	
#Acquired=	09.07.2019 13:51:44
	358.26	358.585	358.911	359.235	359.561	359.886	360.21	360.536	360.861	361.186	361.512	361.836	362.161	362.487	362.811	363.135	363.46	363.786	364.11	364.435	364.76	365.085	365.409	365.733	366.059	366.384	366.708	367.032	367.358	367.682	368.006	368.331	368.655	368.981	369.305	369.629	369.953	370.277	370.601	370.927	371.251	371.575	371.899	372.223	372.547	372.871	373.195	373.521	373.845	374.169	374.493	374.817	375.141	375.465	375.789	376.113	376.437	376.76	377.084	377.408	377.732	378.056	378.38	378.703	379.027	379.351	379.675	379.999	380.322	380.646	380.97	381.293	381.617	381.941	382.264	382.588	382.912	383.235	383.559	383.882	384.205	384.528	384.852	385.175	385.499	385.822	386.146	386.469	386.791	387.115	387.438	387.761	388.085	388.408	388.73	389.054	389.377	389.7	390.024	390.345	390.669	390.992	391.315	391.637	391.96	392.284	392.607	392.929	393.252	393.575	393.898	394.22	394.543	394.866	395.188	395.511	395.834	396.155	396.479	396.802	397.123	397.446	397.769	398.091	398.414	398.737	399.058	399.381	399.703	400.025	400.348	400.67	400.993	401.314	401.637	401.958	402.281	402.604	402.925	403.248	403.569	403.892	404.213	404.536	404.857	405.18	405.501	405.824	406.145	406.468	406.789	407.112	407.433	407.754	408.076	408.397	408.72	409.041	409.364	409.685	410.006	410.328	410.649	410.972	411.293	411.614	411.936	412.257	412.578	412.9	413.221	413.542	413.864	414.185	414.506	414.828	415.149	415.47	415.792	416.113	416.434	416.755	417.077	417.398	417.718	418.04	418.361	418.682	419.002	419.323	419.645	419.966	420.286	420.607	420.928	421.25	421.57	421.891	422.211	422.532	422.854	423.174	423.495	423.815	424.136	424.456	424.777	425.097	425.419	425.739	426.06	426.38	426.7	427.021	427.341	427.661	427.981	428.302	428.622	428.942	429.263	429.583	429.903	430.223	430.543	430.863	431.184	431.504	431.824	432.144	432.464	432.784	433.104	433.424	433.744	434.065	434.385	434.705	435.025	435.345	435.664	435.984	436.303	436.623	436.943	437.263	437.583	437.902	438.222	438.541	438.861	439.18	439.5	439.82	440.14	440.458	440.778	441.098	441.417	441.737	442.055	442.375	442.695	443.014	443.333	443.652	443.972	444.292	444.61	444.929	445.249	445.568	445.887	446.206	446.526	446.844	447.163	447.483	447.801	448.12	448.44	448.758	449.077	449.396	449.714	450.034	450.352	450.671	450.99	451.308	451.627	451.945	452.265	452.584	452.902	453.221	453.539	453.858	454.176	454.495	454.813	455.132	455.449	455.769	456.086	456.405	456.723	457.042	457.36	457.679	457.996	458.315	458.633	458.952	459.27	459.589	459.906	460.224	460.543	460.86	461.179	461.496	461.814	462.133	462.45	462.769	463.086	463.404	463.723	464.04	464.357	464.676	464.993	465.311	465.629	465.947	466.264	466.581	466.9	467.217	467.534	467.853	468.17	468.487	468.804	469.123	469.44	469.757	470.074	470.393	470.71	471.027	471.344	471.661	471.98	472.297	472.614	472.931	473.248	473.565	473.882	474.2	474.517	474.834	475.151	475.467	475.784	476.101	476.418	476.736	477.053	477.37	477.687	478.004	478.32	478.637	478.954	479.271	479.587	479.904	480.221	480.537	480.854	481.171	481.487	481.804	482.12	482.437	482.754	483.07	483.387	483.703	484.02	484.336	484.653	484.969	485.286	485.601	485.917	486.234	486.55	486.867	487.183	487.499	487.816	488.132	488.447	488.763	489.08	489.396	489.712	490.029	490.343	490.66	490.976	491.292	491.608	491.923	492.239	492.555	492.872	493.186	493.503	493.819	494.135	494.449	494.766	495.082	495.398	495.712	496.028	496.344	496.659	496.975	497.291	497.605	497.921	498.237	498.552	498.868	499.184	499.498	499.814	500.13	500.444	500.76	501.074	501.39	501.705	502.02	502.336	502.651	502.966	503.281	503.596	503.911	504.226	504.541	504.856	505.172	505.486	505.802	506.116	506.43	506.746	507.06	507.375	507.69	508.005	508.319	508.635	508.949	509.264	509.578	509.892	510.208	510.522	510.837	511.151	511.465	511.781	512.094	512.41	512.724	513.038	513.353	513.667	513.981	514.296	514.61	514.924	515.239	515.553	515.866	516.18	516.495	516.809	517.123	517.438	517.752	518.065	518.379	518.694	519.008	519.322	519.635	519.949	520.264	520.577	520.891	521.205	521.518	521.833	522.147	522.46	522.774	523.087	523.401	523.714	524.029	524.342	524.656	524.969	525.283	525.596	525.909	526.223	526.536	526.849	527.164	527.478	527.791	528.104	528.417	528.731	529.044	529.357	529.67	529.984	530.297	530.61	530.923	531.236	531.549	531.863	532.176	532.489	532.802	533.114	533.427	533.74	534.053	534.366	534.679	534.992	535.305	535.618	535.931	536.244	536.555	536.868	537.181	537.494	537.807	538.12	538.431	538.744	539.057	539.37	539.682	539.994	540.307	540.619	540.932	541.245	541.556	541.869	542.182	542.494	542.806	543.118	543.431	543.744	544.055	544.367	544.68	544.991	545.304	545.616	545.927	546.24	546.553	546.864	547.176	547.489	547.8	548.112	548.425	548.736	549.048	549.359	549.671	549.984	550.295	550.607	550.918	551.23	551.541	551.854	552.165	552.477	552.789	553.1	553.412	553.723	554.035	554.346	554.658	554.969	555.281	555.592	555.903	556.215	556.525	556.838	557.148	557.46	557.771	558.083	558.394	558.704	559.016	559.327	559.639	559.949	560.26	560.572	560.883	561.193	561.505	561.815	562.126	562.438	562.748	563.059	563.37	563.681	563.991	564.303	564.613	564.924	565.234	565.546	565.856	566.167	566.477	566.789	567.099	567.409	567.719	568.03	568.341	568.651	568.962	569.272	569.582	569.894	570.204	570.514	570.824	571.134	571.444	571.754	572.066	572.376	572.686	572.996	573.306	573.616	573.926	574.236	574.546	574.856	575.166	575.476	575.787	576.097	576.407	576.717	577.027	577.336	577.646	577.956	578.266	578.576	578.885	579.195	579.505	579.815	580.123	580.433	580.743	581.052	581.362	581.672	581.981	582.291	582.601	582.91	583.22	583.528	583.838	584.147	584.457	584.766	585.076	585.385	585.693	586.003	586.313	586.622	586.931	587.241	587.549	587.858	588.168	588.477	588.785	589.094	589.404	589.713	590.021	590.33	590.64	590.949	591.257	591.566	591.875	592.183	592.493	592.802	593.11	593.419	593.728	594.036	594.345	594.654	594.962	595.271	595.58	595.888	596.197	596.504	596.814	597.123	597.43	597.739	598.047	598.356	598.663	598.972	599.281	599.589	599.898	600.205	600.514	600.822	601.131	601.438	601.747	602.054	602.363	602.671	602.979	603.287	603.594	603.903	604.21	604.519	604.826	605.135	605.442	605.75	606.058	606.366	606.674	606.982	607.289	607.597	607.905	608.212	608.52	608.828	609.135	609.443	609.75	610.058	610.366	610.673	610.98	611.287	611.596	611.903	612.21	612.518	612.825	613.132	613.439	613.748	614.055	614.362	614.668	614.975	615.284	615.591	615.897	616.204	616.511	616.818	617.126	617.433	617.74	618.047	618.353	618.66	618.967	619.274	619.582	619.889	620.195	620.502	620.809	621.115	621.422	621.729	622.035	622.342	622.648	622.955	623.262	623.568	623.875	624.181	624.488	624.794	625.101	625.407	625.714	626.02	626.327	626.633	626.94	627.246	627.552	627.859	628.165	628.472	628.778	629.083	629.389	629.696	630.002	630.308	630.615	630.921	631.226	631.532	631.838	632.144	632.451	632.757	633.062	633.368	633.674	633.98	634.286	634.591	634.897	635.203	635.509	635.814	636.12	636.426	636.732	637.037	637.343	637.649	637.953	638.259	638.565	638.87	639.176	639.482	639.786	640.092	640.398	640.702	641.008	641.314	641.619	641.924	642.23	642.535	642.84	643.145	643.451	643.755	644.061	644.366	644.671	644.976	645.281	645.586	645.891	646.196	646.5	646.806	647.11	647.416	647.72	648.026	648.33	648.635	648.94	649.245	649.549	649.853	650.159	650.463	650.768	651.072	651.378	651.682	651.986	652.291	652.595	652.899	653.205	653.509	653.814	654.118	654.422	654.727	655.031	655.335	655.639	655.944	656.248	656.552	656.857	657.161	657.465	657.768	658.074	658.377	658.681	658.985	659.29	659.594	659.897	660.201	660.506	660.81	661.114	661.417	661.721	662.024	662.329	662.633	662.937	663.24	663.544	663.847	664.151	664.454	664.759	665.063	665.366	665.67	665.973	666.277	666.58	666.883	667.187	667.49	667.794	668.097	668.4	668.704	669.007	669.31	669.614	669.917	670.22	670.524	670.827	671.13	671.433	671.737	672.04	672.343	672.646	672.949	673.253	673.556	673.859	674.161	674.464	674.767	675.07	675.373	675.676	675.979	676.282	676.584	676.887	677.19	677.493	677.796	678.099	678.4	678.703	679.006	679.309
0	21.8671	21.8615	21.8557	15.6072	22.6253	16.3815	19.5009	20.2815	22.6228	19.5023	17.9401	21.445	21.0481	19.0922	18.6969	17.1358	13.241	20.2533	19.4776	16.3633	18.7007	17.1392	20.2487	20.63	14.786	17.8946	16.7258	18.282	25.2866	18.6769	16.347	21.0252	24.9284	20.6512	22.2152	17.9298	22.606	17.9259	15.5838	17.5264	17.9101	21.7978	19.849	21.7971	18.3001	21.036	21.0463	19.8834	22.6132	19.0993	23.7658	20.6387	18.6848	22.575	21.0228	16.7495	23.779	17.556	17.9575	20.306	16.0094	18.7361	18.7275	17.9406	19.8875	20.279	26.5254	24.583	18.7355	18.3491	13.2749	17.9594	19.1278	21.4656	19.1202	14.0459	21.0691	18.7305	17.9535	18.3472	14.8353	21.4727	21.8632	17.9604	19.1358	18.752	17.1969	18.3767	21.1186	14.0794	16.4237	18.7669	17.2022	19.55	21.1179	17.9913	21.1183	19.5485	18.7602	17.5843	16.4137	13.2927	18.7771	21.1362	23.1018	22.7125	18.0109	23.4865	20.7414	19.9564	23.0877	21.1341	19.9631	21.922	19.181	18.7869	17.2183	21.1285	18.7795	18.7794	23.8663	20.346	21.912	17.217	17.9998	18	19.1746	19.959	18.0045	20.7471	16.4422	19.5728	15.6546	18.7788	18.7712	20.3285	16.4159	17.197	18.7624	21.8939	18.3797	16.4281	17.9955	18.7787	20.7332	20.7297	23.0727	22.6803	15.6429	16.8194	21.9081	20.3437	18.7751	24.633	17.9782	21.0975	17.1875	20.3122	21.0946	17.1886	19.5305	19.9161	13.2725	21.0713	17.1634	23.4005	19.8913	11.7037	17.9526	21.4732	19.5256	22.6499	20.3026	23.028	22.6306	21.066	19.5054	24.969	22.2404	17.9499	21.0729	19.5124	17.9508	19.1189	24.1847	8.57834	23.776	21.4317	22.6003	25.7238	23.3953	20.2856	24.1965	22.642	19.1323	23.8207	18.3547	20.3063	24.9876	16.3926	28.0904	21.0605	23.7866	24.958	19.5035	26.5342	27.7138	22.6438	23.8161	29.672	21.0837	24.9942	24.6161	21.5057	25.8266	30.9328	25.4595	18.8015	25.8484	24.279	27.4135	24.2879	25.867	27.0564	18.0454	27.0765	25.12	24.7318	28.2688	21.5957	25.9138	22.7689	25.9035	22.7597	19.6208	17.2713	29.4561	22.7952	21.6297	20.4576	22.8188	19.2729	21.2315	23.9769	15.7217	25.1593	27.1335	22.4213	18.8848	20.8544	20.8577	22.8328	23.2387	18.9187	16.565	18.1526	19.3438	21.3223	19.3503	15.797	19.7464	21.7204	20.5351	19.7463	17.3803	22.9194	26.0943	20.9654	19.7861	16.6229	22.1624	18.993	23.7395	21.7632	17.0189	20.5876	19.8024	17.4309	22.1886	15.8503	18.2286	22.1925	18.2316	20.6135	20.6182	20.6223	21.0211	20.624	20.2242	22.5978	18.2314	17.4341	15.8466	19.016	15.0574	18.234	20.6216	21.4241	18.2563	21.8332	15.0871	15.0896	20.653	22.2466	23.0451	15.894	17.4816	22.6412	17.4719	20.2448	18.2551	15.0777	16.6635	20.2338	17.8526	12.6937	15.8639	19.0321	16.6501	13.4782	19.8236	19.8282	22.2123	18.2475	23.7994	19.432	21.4082	17.4372	23.3718	20.5897	18.2068	18.5984	18.599	20.1879	19.8013	16.6404	19.0216	19.8118	23.7639	19.7911	22.9432	16.6054	18.971	20.1528	18.9653	20.1488	19.7511	18.9573	20.9265	19.7361	21.7034	19.7257	17.356	22.8772	16.5664	18.9333	14.1987	19.7153	22.8593	20.8762	18.895	16.5245	21.2387	19.6625	25.1669	18.4811	21.2307	18.8668	22.7895	17.6749	20.8107	18.4512	18.8427	21.1988	21.9854	18.0597	22.7686	18.8382	19.2229	16.4683	19.2021	21.9329	18.7901	24.6521	21.125	19.9496	23.0802	14.8672	15.6514	19.9558	19.5619	16.8188	19.5501	20.7156	18.7545	25.7777	17.5686	21.0742	20.2874	17.9441	18.7254	19.5095	26.5384	17.9539	23.806	20.2889	19.1137	21.061	21.0612	23.4042	20.2866	18.7273	20.2862	21.4515	21.0537	18.3164	20.2559	20.2482	21.0212	21.018	21.017	19.4605	21.4081	22.5789	18.6898	20.2516	17.9171	21.0313	21.024	21.0131	21.7804	20.2189	24.8853	24.1137	25.6773	19.4564	23.3484	24.1245	18.6748	19.8403	18.6718	24.1151	22.1667	24.107	24.1051	18.6634	19.4451	21.3946	22.5644	19.0619	22.1686	27.6046	20.2116	22.5402	26.4264	22.5424	27.2092	17.1032	24.4854	28.7525	25.6341	27.1764	19.4049	26.3853	27.9368	27.5527	26.0062	23.2935	27.1773	22.9039	30.2724	32.5928	34.5277	28.3212	21.7298	36.8723	34.939	35.7187	38.823	40.3703	37.2583	46.1773	52.3794	49.2711	52.372	55.4739	61.292	70.9892	64.3927	83.0069	91.5319	119.058	124.089	146.961	177.588	236.511	288.818	329.064	396.383	453.182	446.448	397.563	366.94	281.789	231.489	191.629	147.103	140.883	100.602	100.186	83.1506	75.0279	69.6244	62.6781	56.8895	46.8358	51.4828	43.3492	40.6297	37.9077	43.3053	39.8089	36.317	33.2165	28.9623	20.0786	30.5039	25.4861	23.1723	28.5838	25.4972	31.2945	26.2717	25.1104	26.6518	25.875	27.0291	19.3034	25.4761	25.471	22.3779	26.2282	24.6771	21.9709	21.1951	22.735	18.4989	19.2757	21.211	22.3733	20.0577	26.6046	23.505	21.949	22.3232	23.8588	20.013	20.7879	17.3262	18.4801	24.6325	20.005	21.9196	20.7608	19.2221	16.917	16.1499	19.2269	22.6864	19.9924	17.684	19.2218	14.6103	18.4585	18.4619	21.5412	16.9255	21.5405	21.5397	17.6938	16.1573	17.6996	18.8576	16.9353	22.7084	18.857	21.162	13.8496	19.2355	15.3908	18.4737	13.8589	20.022	14.2475	18.8681	16.9422	21.5622	22.3309	20.0181	19.2441	21.5481	13.0801	16.5407	23.8496	21.1593	20.009	19.2442	18.4797	19.2558	23.1146	16.956	16.5749	20.0473	20.0483	17.3486	13.1065	20.8145	17.731	18.5042	20.8219	13.8848	16.2023	20.8339	15.8188	20.8348	15.4341	18.138	16.9845	13.1285	18.5402	19.3179	16.2302	17.0047	21.2559	15.8439	15.4551	17.3842	17.7688	20.8594	16.2263	18.9349	12.3687	16.2372	22.0394	17.7886	18.1789	15.4766	16.2579	13.1678	14.3354	20.9251	18.5979	17.0433	17.0394	20.9125	20.1455	15.5064	16.2931	22.1236	20.1875	12.4222	16.3003	23.6688	19.7865	17.8479	15.5236	13.976	18.6409	18.6455	18.6473	17.481	22.5289	16.3137	12.4315	12.4361	15.9416	16.3383	19.0678	17.1248	14.0115	16.3462	18.681	21.4058	18.6822	10.5092	16.7375	17.1269	17.1266	17.9039	19.8476	17.5101	14.3958	17.12	17.9023	15.5731	17.9167	24.1566	13.2491	18.3141	17.1422	17.9183	17.9167	16.748	15.9683	19.8607	18.6893	16.3506	17.1282	20.2438	15.9642	14.4097	15.1909	21.0335	17.1349	14.7925	19.0646	16.3323	18.269	13.9902	20.9853	15.5469	18.6594	21.7709	20.9916	14.7684	15.5407	22.1384	15.9204	18.6362	12.424	20.9666	15.5315	19.4138	19.7995	19.4066	17.0726	16.2914	19.0011	18.6085	16.2782	22.86	16.2671	18.5835	20.1254	15.8656	19.3496	20.9025	17.0355	13.9383	17.804	16.6319	18.5508	20.4689	17.7586	20.4606	20.4652	11.201	20.0879	16.2245	21.6291	14.6735	13.1258	15.4384	13.8908	20.4432	17.7356	20.0396	20.4155	16.9417	16.9357	16.1611	16.1571	19.2306	14.6128	20.3785	23.0679	19.9907	18.4512	18.4487	16.9082	19.9779	19.2053	22.274	16.1273	16.1258	10.7494	19.1918	17.6509	21.0945	20.6989	16.8552	18.3771	16.8386	15.3043	16.4515	21.0443	16.072	20.6652	13.0106	17.5996	17.5954	16.0617	23.3241	17.5875	19.117	17.5878	14.5281	16.8187	19.8718	12.2266	19.8671	17.9584	19.1082	22.17	20.2612	14.527	19.8775	16.0532	20.256	18.3444	21.4012	19.8707	21.7773	16.8063	19.0936	17.5643	15.2747	17.5707	15.2841	18.7283	13.7611	16.4356	19.8719	23.307	19.4846	15.2829	14.5207	17.5801	17.5812	17.5806	16.0501	18.3408	21.0139	17.5753	17.959	19.8729	13.7614	15.6767	14.5329	17.595	16.8303	14.9165	19.1208	22.1772	19.8822	16.0603	20.6534	18.3636	15.307	16.0756	18.375	14.1661	20.6792	15.3225	16.0945	17.6334	22.2388	18.7895	16.4883	19.1719	19.5572	18.7958	19.5726	14.9757	20.7463	19.2163	19.22	16.9149	17.6849	18.4558	19.2284	18.8484	21.547	18.859	17.3245	15.4042	15.024	19.2684	16.5772	18.8978	20.0624	20.0691	16.2136	20.0767	16.2162	20.0763	19.303	17.7586	21.6213	15.4475	18.1581	14.6888	19.3392	18.9638	15.8753	17.8165	14.7191	17.816	16.2634	17.0345	11.6137	20.1334	17.8147	15.1071	22.0819	17.0449	19.7537	16.2654	20.1377	18.2049	20.5365	18.2196	16.2872	13.1873	12.4119	18.2297	16.2917	14.7439	17.4664	12.4251	21.7482	15.5342	17.8615	10.094	20.1878	17.4737	14.7606	20.5942	20.2095	17.8771	17.8736	16.3154	20.9739	15.9249	17.8699	15.5421	15.5439	19.4288	17.4822	18.6421	14.7543	14.7521	18.6344	19.4141	19.0309	20.979	18.2635	17.4877	14.7659	19.4239	18.2528	17.0832	10.8695	19.4089	17.8557	10.0913	17.8496	18.2321	13.186	21.7174	15.5163	17.4645	18.6397	13.9866	16.3216	17.875	20.2007	17.8627	17.0797	15.5229	13.9689	18.6249	16.2969	18.6242	15.5174	12.4095	16.2787	19.367	20.1291	16.6372	20.1146	18.5676	19.7321	23.9941	16.2566	21.6744	16.6381	17.0171	16.2345	11.9761	16.6041	15.4396	21.994	20.0583	14.2676	21.5873	16.5708	17.7218	18.102	18.097	17.322	17.7018	19.236	16.9243	13.8455	23.074	14.6119	14.6089	16.5258	19.2078	20.7342	18.4216	19.1818	19.9437
